time (s)	coil I (A)	last det (V)	int current (uC)
2330.449681	0.354486	90.722656	376.757812
2330.451684	0.353497	3.888469	0.199357
2331.491699	0.352302	351.269531	-57.324219
2331.493700	0.351248	3.863726	0.679742
2332.526668	0.291138	89.746094	379.003906
2332.528671	0.351923	89.746094	379.003906
2332.530677	0.350882	3.859702	0.204595
2333.572751	0.352384	337.500000	-57.226562
2333.574754	0.351260	3.863858	0.207273
2334.601299	0.343233	90.625000	378.710937
2334.603302	0.351908	90.625000	378.710937
2334.607299	0.350547	3.856015	0.184878
2335.645336	0.351413	351.269531	-58.007812
2335.647338	0.350930	3.860234	0.240405
2336.667926	0.352178	93.652344	373.925781
2336.669926	0.352501	3.877506	0.228311
2337.717985	0.352078	335.156250	-55.078125
2337.719989	0.350981	335.156250	-55.078125
2337.721987	0.350453	3.854978	0.256878
2338.749986	0.351614	93.847656	376.953125
2338.751989	0.350681	93.847656	376.953125
2338.753988	0.350152	3.851673	0.226579
2339.802065	0.350779	333.105469	-55.859375
2339.804067	0.350148	3.851629	0.581006
2340.826651	0.352377	95.605469	372.851562
2340.828654	0.352615	3.878765	0.180154
2341.876680	0.350822	326.171875	-53.613281
2341.878682	0.350465	3.855111	0.215504
2342.899193	0.350870	99.511719	362.207031
2342.901194	0.351287	3.864160	0.220779
2343.945241	0.351300	347.460937	-56.445312
2343.947244	0.350664	3.857300	0.320954
2344.971776	0.351075	93.945312	375.878906
2344.973777	0.351421	3.865631	0.235194
2346.023865	0.337444	328.320312	-55.175781
2346.025867	0.351904	328.320312	-55.175781
2346.027867	0.351860	3.870461	0.221409
2347.053902	0.343725	89.257812	387.304687
2347.055904	0.352070	89.257812	387.304687
2347.057902	0.351216	3.863380	0.192707
2348.099931	0.351109	346.875000	-57.128906
2348.101933	0.353127	3.884392	0.210851
2349.128927	0.353918	96.875000	364.550781
2349.130928	0.352618	3.878800	0.560851
2350.170927	0.352584	346.386719	-53.710937
2350.172928	0.351550	3.867049	0.246509
2351.198936	1.988235	96.484375	365.820312
2351.200935	0.351597	96.484375	365.820312
2351.202935	0.350705	3.857752	0.220574
2352.246962	0.352754	365.136719	-56.738281
2352.248964	0.354029	3.894318	0.224683
2353.282994	0.347368	92.968750	375.195312
2353.284997	0.353119	92.968750	375.195312
2353.287000	0.352185	3.874032	0.202833
2354.323073	0.352123	356.738281	-55.859375
2354.325073	0.351159	3.862751	0.233516
2355.361611	0.351873	98.242187	362.109375
2355.363613	0.351100	3.862103	0.489157
2356.389682	0.349012	352.343750	-54.394531
2356.391688	0.352050	3.872552	0.248730
2357.440216	0.351958	91.699219	382.031250
2357.442217	0.350911	3.860021	0.198304
2358.468298	0.322920	334.179687	-54.394531
2358.470300	0.351630	334.179687	-54.394531
2358.474297	0.350207	3.852275	0.215613
2359.514365	0.283288	95.996094	369.140625
2359.516368	0.352184	95.996094	369.140625
2359.518369	0.351081	3.861891	0.209806
2360.542944	0.352079	345.898437	-58.398437
2360.544946	0.352028	3.872304	0.225594
2361.587916	0.352097	97.460937	365.820312
2361.589918	0.350999	3.860987	0.238634
2362.616431	0.266998	325.781250	-56.054687
2362.618431	0.352385	325.781250	-56.054687
2362.620430	0.351336	3.864700	0.237390
2363.664552	0.355416	94.433594	379.492187
2363.666553	0.354136	3.895497	0.311059
2364.698618	0.283224	331.933594	-57.031250
2364.700620	0.352654	331.933594	-57.031250
2364.702619	0.351437	3.865808	0.226387
2365.734694	0.348485	94.824219	380.371094
2365.736697	0.351701	3.868715	0.233614
2366.776739	0.352561	352.636719	-59.277344
2366.778743	0.351618	3.867802	0.236420
2367.805734	0.287034	93.457031	380.468750
2367.807736	0.352199	93.457031	380.468750
2367.809736	0.351124	3.862360	0.225456
2368.855793	0.325568	351.953125	-56.640625
2368.857796	0.351544	351.953125	-56.640625
2368.859795	0.350689	3.857575	0.220964
2369.886361	0.350631	90.917969	384.472656
2369.888364	0.351958	3.871542	0.204597
2370.930413	0.354277	348.046875	-53.125000
2370.932413	0.353333	3.886661	0.239078
2371.956411	0.348426	92.382812	377.050781
2371.958413	0.354071	3.894779	0.220692
2373.002448	0.278458	355.761719	-53.906250
2373.004447	0.352219	355.761719	-53.906250
2373.006449	0.351051	3.861563	0.246485
2374.034916	0.306259	96.191406	365.039062
2374.036918	0.351920	96.191406	365.039062
2374.038919	0.350847	3.859312	0.222081
2375.083868	0.351352	350.292969	-52.929687
2375.085870	0.350705	3.857752	0.233103
2376.115928	0.352489	96.875000	363.085937
2376.117931	0.351314	3.864452	0.212143
2377.151932	0.276601	367.578125	-54.589844
2377.153936	0.352600	367.578125	-54.589844
2377.155934	0.351460	3.866065	0.251643
2378.191916	0.352207	95.117187	369.824219
2378.195915	0.351306	3.864364	0.214419
2379.226483	0.236433	360.156250	-52.734375
2379.228485	0.352629	360.156250	-52.734375
2379.230485	0.351673	3.868405	0.243361
2380.264530	0.344161	95.703125	369.238281
2380.266531	0.353234	95.703125	369.238281
2380.268534	0.352267	3.874936	0.213884
2381.307078	0.351439	372.460937	-54.882812
2381.309080	0.350707	3.857779	0.232397
2382.341710	0.332434	91.796875	380.175781
2382.343713	0.353430	91.796875	380.175781
2382.347710	0.351933	3.871258	0.209535
2383.379768	0.258890	369.140625	-54.101562
2383.381770	0.263946	369.140625	-54.101562
2383.383769	0.351205	3.863256	0.247518
2384.413852	0.272419	97.656250	364.550781
2384.415853	0.352003	97.656250	364.550781
2384.417854	0.350939	3.860331	0.221412
2385.456476	0.353024	371.093750	-54.003906
2385.458478	0.352013	3.872145	0.318235
2386.490554	0.352064	95.800781	371.191406
2386.492555	0.351193	3.863123	0.218618
2387.533101	0.329067	377.539062	-55.175781
2387.535101	0.351489	377.539062	-55.175781
2387.537101	0.350538	3.855918	0.252963
2388.566089	0.348927	91.308594	385.058594
2388.568088	0.351394	3.865339	0.213424
2389.614134	0.355383	352.734375	-51.562500
2389.616137	0.354402	3.898421	0.226386
2390.642238	0.353586	92.578125	384.667969
2390.644239	0.352646	3.879102	0.222695
2391.688279	0.351578	365.332031	-54.882812
2391.690280	0.350805	3.858860	0.242691
2392.718919	0.351334	97.167969	374.804687
2392.720920	0.350701	3.857708	0.233860
2393.759515	0.310501	361.816406	-56.250000
2393.761518	0.316252	361.816406	-56.250000
2393.763523	0.351015	3.861164	0.247312
2394.794521	0.351993	94.140625	386.132812
2394.796524	0.352031	3.872340	0.227987
2395.834581	0.353267	355.175781	-56.835937
2395.838581	0.352002	3.872021	0.232254
2396.871178	0.309108	93.847656	385.253906
2396.873182	0.351933	93.847656	385.253906
2396.875184	0.351048	3.861528	0.236632
2397.905228	0.264730	348.144531	-55.371094
2397.907230	0.352394	348.144531	-55.371094
2397.909230	0.351241	3.863646	0.232226
2398.953313	0.352939	98.144531	370.117187
2398.955314	0.351857	3.870425	0.231251
2399.981875	0.352866	346.484375	-53.222656
2399.985876	0.351077	3.861847	0.473321
2401.031970	0.350519	98.046875	368.652344
2401.033971	0.349926	3.849182	0.219896
2402.056526	0.354361	351.757812	-51.757812
2402.060525	0.352998	3.882975	0.232790
2403.102629	0.336666	99.023437	366.308594
2403.106630	0.350925	99.023437	366.308594
2403.108631	0.350386	3.854243	0.227783
2404.131622	0.352169	362.500000	-51.757812
2404.133625	0.352397	3.876372	0.251499
2405.179654	0.351871	99.121094	364.941406
2405.181655	0.350905	3.859959	0.221535
2406.208689	0.346686	367.089844	-51.269531
2406.210691	0.352150	367.089844	-51.269531
2406.212691	0.351335	3.864683	0.241176
2407.250732	0.353425	94.335937	377.734375
2407.252734	0.352429	3.876718	0.283556
